File: data/#7 (35도_충전0.5C_방전0.5C)_충방전싸이클_result.csv
,Cycle,Voltage(V),Current(A),Capacity(Ah),Power(W),wattHour(Wh),CELL1,CELL2,CELL3,CELL4,CELL5,CELL6,CELL7,CELL8,CELL9,CELL10,CELL11,CELL12,CELL13,CELL14,CELL15,CELL16,CELL17,CELL18,CELL19,CELL20,CELL21,CELL22,CELL23,CELL24
0,1,72.796,-55.592,-94.809,-4046.909,-8222.106,3.022,3.064,3.032,3.055,3.053,3.033,3.049,3.058,3.026,3.05,3.033,3.017,3.0,3.014,3.014,3.005,3.004,3.033,3.045,3.043,3.049,3.057,3.0,3.054
14,15,72.94,-55.605,-94.472,-4055.825,-8194.08,3.027,3.07,3.042,3.063,3.059,3.038,3.053,3.065,3.035,3.06,3.04,3.022,3.011,3.023,3.025,3.014,3.011,3.042,3.049,3.049,3.056,3.06,3.0,3.054
28,29,73.03,-55.602,-94.244,-4060.618,-8174.761,3.03,3.073,3.047,3.067,3.062,3.04,3.055,3.067,3.041,3.066,3.043,3.027,3.02,3.03,3.031,3.019,3.015,3.048,3.051,3.053,3.06,3.06,3.0,3.054
42,43,73.183,-55.601,-94.872,-4069.029,-8235.674,3.043,3.081,3.058,3.077,3.065,3.042,3.055,3.072,3.05,3.076,3.046,3.031,3.031,3.043,3.044,3.031,3.022,3.056,3.053,3.057,3.066,3.061,3.0,3.056
56,57,73.245,-55.595,-94.593,-4072.002,-8210.795,3.047,3.084,3.06,3.079,3.066,3.043,3.057,3.073,3.051,3.078,3.046,3.033,3.032,3.046,3.046,3.034,3.024,3.058,3.053,3.057,3.067,3.061,3.0,3.058
70,71,73.224,-55.608,-94.398,-4071.843,-8193.009,3.047,3.084,3.061,3.081,3.065,3.043,3.057,3.074,3.05,3.077,3.046,3.034,3.031,3.045,3.047,3.034,3.025,3.058,3.053,3.055,3.067,3.06,3.0,3.059
84,85,73.214,-55.612,-94.202,-4071.554,-8174.609,3.046,3.084,3.061,3.081,3.065,3.043,3.057,3.075,3.049,3.076,3.045,3.034,3.029,3.044,3.046,3.034,3.026,3.057,3.052,3.054,3.067,3.06,3.0,3.058
98,99,73.227,-55.6,-93.959,-4071.399,-8151.444,3.046,3.085,3.062,3.082,3.066,3.044,3.057,3.077,3.049,3.077,3.046,3.033,3.027,3.043,3.045,3.035,3.028,3.057,3.053,3.054,3.068,3.061,3.0,3.057
112,113,73.203,-55.611,-94.087,-4070.854,-8160.88,3.043,3.084,3.059,3.078,3.067,3.045,3.056,3.075,3.046,3.072,3.044,3.033,3.025,3.041,3.042,3.033,3.029,3.054,3.055,3.052,3.065,3.06,3.0,3.057
126,127,73.233,-55.585,-93.887,-4070.691,-8143.058,3.046,3.085,3.061,3.079,3.067,3.046,3.056,3.076,3.047,3.074,3.045,3.034,3.025,3.042,3.043,3.035,3.03,3.055,3.056,3.053,3.067,3.059,3.0,3.058
140,141,73.224,-55.613,-93.753,-4072.239,-8130.895,3.048,3.086,3.061,3.08,3.067,3.046,3.056,3.075,3.046,3.074,3.044,3.036,3.027,3.042,3.042,3.034,3.029,3.056,3.057,3.052,3.066,3.058,3.0,3.061
154,155,73.306,-55.588,-93.361,-4074.923,-8093.894,3.045,3.088,3.066,3.084,3.071,3.048,3.06,3.079,3.052,3.079,3.047,3.035,3.024,3.044,3.047,3.039,3.034,3.057,3.058,3.055,3.071,3.061,3.0,3.054
168,169,73.216,-55.597,-93.597,-4070.585,-8115.239,3.053,3.083,3.056,3.075,3.063,3.042,3.053,3.071,3.041,3.071,3.043,3.044,3.04,3.042,3.039,3.031,3.028,3.058,3.057,3.05,3.064,3.054,3.0,3.071
182,183,73.172,-55.589,-93.492,-4067.545,-8102.061,3.049,3.084,3.06,3.077,3.066,3.044,3.056,3.073,3.045,3.072,3.043,3.033,3.021,3.038,3.039,3.032,3.029,3.052,3.053,3.051,3.065,3.056,3.0,3.061
196,197,73.263,-55.603,-93.181,-4073.677,-8075.926,3.05,3.089,3.064,3.082,3.069,3.046,3.057,3.077,3.048,3.076,3.044,3.037,3.025,3.042,3.043,3.036,3.032,3.055,3.056,3.052,3.069,3.058,3.0,3.061
210,211,73.212,-55.605,-93.372,-4070.948,-8093.618,3.048,3.087,3.062,3.079,3.067,3.044,3.055,3.074,3.045,3.073,3.043,3.035,3.023,3.039,3.041,3.033,3.03,3.052,3.055,3.051,3.067,3.056,3.0,3.06
224,225,73.225,-55.605,-93.14,-4071.638,-8071.929,3.05,3.089,3.063,3.081,3.068,3.045,3.056,3.075,3.046,3.074,3.044,3.036,3.024,3.04,3.041,3.034,3.031,3.054,3.056,3.052,3.068,3.056,3.0,3.062
238,239,73.211,-55.599,-92.957,-4070.461,-8055.097,3.052,3.09,3.065,3.082,3.069,3.046,3.056,3.076,3.046,3.075,3.044,3.036,3.024,3.04,3.042,3.035,3.032,3.055,3.057,3.052,3.069,3.057,3.0,3.063
252,253,73.235,-55.609,-92.807,-4072.538,-8040.816,3.053,3.09,3.065,3.082,3.07,3.046,3.056,3.076,3.046,3.075,3.044,3.037,3.026,3.041,3.042,3.035,3.033,3.055,3.058,3.052,3.069,3.056,3.0,3.065
266,267,73.264,-55.588,-92.631,-4072.579,-8024.52,3.053,3.092,3.066,3.084,3.071,3.047,3.056,3.077,3.047,3.077,3.044,3.037,3.025,3.041,3.043,3.036,3.034,3.056,3.058,3.053,3.071,3.057,3.0,3.063
280,281,73.244,-55.584,-92.538,-4071.158,-8015.701,3.054,3.092,3.067,3.085,3.071,3.046,3.055,3.077,3.048,3.077,3.044,3.037,3.025,3.042,3.043,3.037,3.034,3.056,3.058,3.053,3.071,3.057,3.0,3.064
294,295,73.316,-55.607,-92.361,-4076.885,-7998.871,3.054,3.093,3.068,3.085,3.072,3.047,3.055,3.077,3.048,3.078,3.044,3.037,3.025,3.042,3.044,3.037,3.035,3.056,3.059,3.054,3.072,3.057,3.0,3.064
308,309,73.217,-55.603,-92.588,-4071.056,-8019.371,3.053,3.09,3.064,3.08,3.068,3.043,3.053,3.073,3.044,3.073,3.041,3.035,3.024,3.039,3.039,3.033,3.031,3.053,3.056,3.05,3.068,3.054,3.0,3.065
322,323,73.218,-55.611,-92.475,-4071.754,-8009.302,3.056,3.092,3.065,3.082,3.069,3.044,3.053,3.074,3.044,3.074,3.042,3.036,3.026,3.04,3.04,3.033,3.032,3.055,3.057,3.051,3.07,3.055,3.0,3.069
336,337,73.236,-55.597,-92.398,-4071.714,-8002.568,3.057,3.093,3.066,3.083,3.069,3.044,3.052,3.074,3.043,3.074,3.041,3.037,3.027,3.04,3.04,3.034,3.032,3.055,3.058,3.051,3.07,3.054,3.0,3.07
350,351,73.256,-55.596,-92.232,-4072.741,-7986.836,3.058,3.093,3.067,3.083,3.07,3.044,3.052,3.074,3.044,3.075,3.042,3.037,3.027,3.04,3.041,3.034,3.033,3.055,3.058,3.052,3.071,3.055,3.0,3.07
364,365,73.237,-55.602,-92.133,-4072.122,-7977.243,3.059,3.094,3.068,3.084,3.07,3.044,3.052,3.075,3.045,3.075,3.042,3.037,3.027,3.04,3.041,3.034,3.034,3.055,3.059,3.052,3.072,3.055,3.0,3.071
378,379,73.279,-55.596,-91.971,-4074.013,-7961.875,3.059,3.095,3.068,3.084,3.071,3.043,3.052,3.074,3.045,3.076,3.042,3.037,3.027,3.041,3.041,3.035,3.034,3.055,3.059,3.052,3.072,3.055,3.0,3.071
392,393,73.278,-55.601,-91.779,-4074.385,-7942.936,3.059,3.094,3.067,3.083,3.07,3.043,3.052,3.074,3.044,3.074,3.042,3.037,3.027,3.039,3.04,3.034,3.033,3.055,3.059,3.052,3.072,3.055,3.0,3.072
406,407,73.123,-55.611,-92.086,-4066.493,-7970.907,3.055,3.09,3.063,3.079,3.066,3.04,3.049,3.07,3.04,3.069,3.038,3.034,3.024,3.036,3.036,3.03,3.031,3.05,3.056,3.049,3.068,3.052,3.0,3.069
420,421,73.174,-55.6,-91.885,-4068.477,-7953.224,3.058,3.094,3.066,3.082,3.068,3.041,3.05,3.071,3.042,3.072,3.039,3.035,3.026,3.037,3.038,3.032,3.032,3.053,3.058,3.051,3.071,3.053,3.0,3.072
434,435,73.246,-55.587,-91.762,-4071.555,-7942.063,3.06,3.095,3.067,3.083,3.069,3.041,3.05,3.073,3.043,3.073,3.04,3.036,3.027,3.038,3.039,3.033,3.033,3.054,3.059,3.051,3.072,3.054,3.0,3.073
448,449,73.185,-55.623,-91.943,-4070.771,-7959.381,3.063,3.094,3.065,3.08,3.066,3.038,3.047,3.07,3.039,3.071,3.038,3.039,3.032,3.038,3.037,3.03,3.031,3.054,3.058,3.049,3.07,3.052,3.0,3.079
462,463,73.207,-55.591,-91.775,-4069.7,-7942.829,3.062,3.094,3.066,3.081,3.067,3.039,3.047,3.07,3.04,3.072,3.039,3.037,3.03,3.038,3.037,3.031,3.032,3.053,3.058,3.05,3.071,3.053,3.0,3.077
476,477,73.226,-55.611,-91.663,-4072.178,-7932.001,3.062,3.095,3.067,3.082,3.068,3.039,3.047,3.071,3.04,3.073,3.039,3.037,3.03,3.039,3.038,3.031,3.033,3.054,3.058,3.051,3.072,3.053,3.0,3.077
490,491,73.237,-55.607,-91.518,-4072.479,-7918.51,3.062,3.097,3.069,3.084,3.069,3.04,3.048,3.072,3.042,3.074,3.039,3.037,3.029,3.039,3.039,3.033,3.034,3.054,3.059,3.052,3.073,3.054,3.0,3.076
504,505,73.247,-55.61,-91.302,-4073.255,-7898.721,3.06,3.098,3.071,3.085,3.071,3.041,3.05,3.073,3.044,3.074,3.039,3.033,3.023,3.038,3.04,3.034,3.034,3.051,3.057,3.052,3.073,3.054,3.0,3.07
518,519,73.237,-55.615,-91.305,-4073.05,-7899.474,3.064,3.099,3.071,3.085,3.07,3.041,3.049,3.073,3.043,3.074,3.039,3.035,3.026,3.039,3.04,3.033,3.034,3.053,3.058,3.052,3.074,3.054,3.0,3.074
532,533,73.26,-55.59,-91.14,-4072.509,-7884.17,3.063,3.1,3.072,3.087,3.072,3.042,3.05,3.074,3.045,3.076,3.041,3.036,3.027,3.04,3.042,3.035,3.036,3.054,3.06,3.053,3.076,3.055,3.0,3.074
546,547,73.3,-55.622,-90.979,-4077.054,-7869.242,3.063,3.1,3.074,3.089,3.073,3.043,3.05,3.076,3.046,3.077,3.041,3.035,3.027,3.042,3.043,3.037,3.037,3.054,3.06,3.054,3.077,3.056,3.0,3.073
560,561,73.299,-55.593,-90.773,-4074.918,-7849.028,3.063,3.102,3.076,3.09,3.075,3.044,3.052,3.077,3.048,3.079,3.042,3.035,3.026,3.043,3.045,3.038,3.039,3.055,3.061,3.055,3.079,3.058,3.0,3.071
574,575,75.606,-55.588,-89.376,-4202.754,-7741.702,3.155,3.184,3.166,3.177,3.166,3.142,3.147,3.168,3.146,3.168,3.14,3.135,3.128,3.142,3.143,3.14,3.14,3.15,3.155,3.152,3.168,3.154,3.112,3.161
588,589,73.34,-55.602,-90.604,-4077.894,-7833.833,3.063,3.103,3.078,3.092,3.076,3.044,3.051,3.078,3.049,3.08,3.042,3.034,3.025,3.044,3.046,3.04,3.04,3.055,3.061,3.057,3.08,3.058,3.0,3.07
602,603,73.238,-55.593,-90.835,-4071.475,-7854.689,3.059,3.098,3.072,3.086,3.07,3.039,3.047,3.071,3.043,3.073,3.037,3.031,3.023,3.039,3.041,3.034,3.035,3.05,3.056,3.051,3.074,3.053,3.0,3.068
616,617,73.258,-55.6,-90.196,-4073.141,-7792.1,3.066,3.106,3.076,3.09,3.073,3.041,3.049,3.075,3.043,3.075,3.039,3.031,3.024,3.04,3.043,3.036,3.035,3.052,3.061,3.054,3.08,3.056,3.0,3.076
630,631,73.219,-55.609,-90.314,-4071.638,-7808.981,3.064,3.1,3.072,3.087,3.071,3.039,3.046,3.072,3.042,3.073,3.037,3.031,3.023,3.037,3.039,3.033,3.034,3.051,3.058,3.052,3.076,3.054,3.0,3.074
644,645,73.279,-55.615,-90.256,-4075.442,-7802.766,3.065,3.102,3.075,3.089,3.073,3.041,3.048,3.074,3.044,3.076,3.039,3.033,3.026,3.04,3.042,3.035,3.037,3.053,3.06,3.054,3.078,3.056,3.0,3.074
658,659,73.27,-55.601,-90.163,-4073.866,-7793.332,3.066,3.103,3.076,3.09,3.074,3.041,3.048,3.074,3.045,3.076,3.039,3.032,3.025,3.04,3.042,3.036,3.037,3.053,3.06,3.054,3.079,3.057,3.0,3.075
672,673,73.29,-55.599,-89.829,-4074.867,-7760.11,3.063,3.103,3.077,3.091,3.076,3.042,3.049,3.076,3.046,3.078,3.04,3.032,3.023,3.041,3.043,3.037,3.039,3.053,3.061,3.055,3.079,3.058,3.0,3.072
686,687,73.312,-55.604,-89.72,-4076.474,-7749.633,3.064,3.104,3.078,3.092,3.076,3.043,3.049,3.076,3.047,3.079,3.04,3.032,3.023,3.042,3.044,3.038,3.039,3.054,3.061,3.056,3.08,3.058,3.0,3.071
700,701,73.312,-55.603,-89.57,-4076.358,-7734.895,3.063,3.104,3.079,3.093,3.077,3.043,3.05,3.077,3.048,3.079,3.041,3.032,3.022,3.043,3.045,3.039,3.04,3.054,3.062,3.057,3.081,3.059,3.0,3.07