File: data/#9 (45도_충전0.5C_방전0.5C)_충방전싸이클_result.csv
,Cycle,Voltage(V),Current(A),Capacity(Ah),Power(W),wattHour(Wh),CELL1,CELL2,CELL3,CELL4,CELL5,CELL6,CELL7,CELL8,CELL9,CELL10,CELL11,CELL12,CELL13,CELL14,CELL15,CELL16,CELL17,CELL18,CELL19,CELL20,CELL21,CELL22,CELL23,CELL24
0,1,73.265,-55.599,-96.201,-4073.484,-8353.93,3.077,3.065,3.041,3.063,3.075,3.069,3.062,3.074,3.0,3.005,3.084,3.032,3.091,3.078,3.042,3.083,3.0,3.081,3.072,3.03,3.078,3.013,3.024,3.028
14,15,73.255,-55.61,-96.291,-4073.677,-8370.109,3.083,3.069,3.047,3.068,3.081,3.073,3.06,3.071,3.0,3.003,3.083,3.03,3.094,3.079,3.047,3.088,3.0,3.079,3.07,3.03,3.079,3.014,3.027,3.032
28,29,73.281,-55.589,-96.183,-4073.595,-8363.05,3.084,3.069,3.05,3.069,3.082,3.074,3.06,3.069,3.0,3.003,3.082,3.031,3.096,3.078,3.048,3.09,3.0,3.078,3.069,3.03,3.079,3.014,3.029,3.034
42,43,73.322,-55.605,-96.521,-4077.042,-8396.495,3.087,3.072,3.054,3.072,3.084,3.075,3.059,3.066,3.0,3.001,3.081,3.03,3.098,3.08,3.053,3.094,3.002,3.077,3.067,3.031,3.079,3.015,3.031,3.038
56,57,73.302,-55.609,-96.425,-4076.252,-8389.631,3.087,3.072,3.055,3.073,3.085,3.075,3.057,3.064,3.0,3.0,3.079,3.029,3.099,3.079,3.054,3.094,3.001,3.075,3.066,3.031,3.079,3.015,3.031,3.038
70,71,73.322,-55.589,-96.319,-4075.876,-8381.048,3.088,3.072,3.057,3.074,3.087,3.076,3.057,3.063,3.001,3.0,3.079,3.029,3.1,3.079,3.055,3.095,3.001,3.074,3.066,3.031,3.079,3.016,3.031,3.039
84,85,73.334,-55.591,-96.21,-4076.68,-8371.956,3.088,3.073,3.059,3.075,3.088,3.077,3.056,3.063,3.002,3.0,3.078,3.028,3.101,3.079,3.057,3.096,3.002,3.074,3.065,3.031,3.08,3.016,3.032,3.04
98,99,73.335,-55.614,-96.131,-4078.414,-8365.447,3.088,3.073,3.06,3.076,3.089,3.078,3.055,3.062,3.001,3.0,3.077,3.027,3.101,3.079,3.058,3.096,3.002,3.074,3.065,3.032,3.08,3.017,3.032,3.039
112,113,73.463,-55.599,-96.246,-4084.5,-8373.517,3.094,3.078,3.07,3.079,3.092,3.085,3.064,3.067,3.0,3.006,3.079,3.031,3.107,3.085,3.068,3.104,3.013,3.08,3.069,3.043,3.09,3.025,3.038,3.046
126,127,73.462,-55.605,-96.075,-4084.858,-8359.368,3.094,3.079,3.072,3.079,3.093,3.085,3.064,3.068,3.0,3.006,3.08,3.031,3.109,3.086,3.069,3.105,3.012,3.081,3.068,3.042,3.091,3.024,3.039,3.046
140,141,73.466,-55.6,-95.869,-4084.697,-8341.09,3.094,3.08,3.073,3.079,3.093,3.085,3.063,3.067,3.0,3.005,3.079,3.031,3.108,3.086,3.07,3.106,3.012,3.08,3.068,3.042,3.092,3.025,3.038,3.045
154,155,73.467,-55.611,-95.699,-4085.582,-8326.006,3.094,3.081,3.074,3.08,3.093,3.085,3.062,3.067,3.0,3.006,3.078,3.031,3.107,3.086,3.07,3.107,3.011,3.08,3.068,3.043,3.092,3.025,3.039,3.044
168,169,73.491,-55.584,-95.458,-4084.902,-8303.738,3.092,3.081,3.074,3.08,3.093,3.084,3.06,3.066,3.0,3.006,3.076,3.028,3.106,3.086,3.071,3.107,3.01,3.08,3.067,3.043,3.091,3.025,3.039,3.043
182,183,73.478,-55.605,-95.285,-4085.755,-8287.766,3.092,3.082,3.074,3.08,3.094,3.084,3.06,3.066,3.0,3.006,3.075,3.028,3.106,3.087,3.072,3.107,3.01,3.079,3.066,3.044,3.091,3.025,3.039,3.043
196,197,73.464,-55.613,-95.059,-4085.539,-8266.549,3.093,3.082,3.075,3.08,3.094,3.084,3.06,3.067,3.0,3.005,3.075,3.028,3.106,3.086,3.071,3.107,3.01,3.079,3.066,3.042,3.091,3.025,3.041,3.043
210,211,73.667,-55.607,-95.057,-4096.421,-8266.238,3.102,3.09,3.083,3.088,3.099,3.091,3.069,3.075,3.0,3.019,3.081,3.04,3.112,3.093,3.079,3.115,3.023,3.088,3.074,3.054,3.099,3.037,3.054,3.055
224,225,73.662,-55.613,-94.87,-4096.52,-8250.283,3.102,3.091,3.084,3.088,3.101,3.092,3.07,3.075,3.0,3.019,3.082,3.041,3.114,3.094,3.081,3.117,3.023,3.088,3.073,3.054,3.099,3.037,3.054,3.056
238,239,73.73,-55.6,-94.666,-4099.375,-8231.728,3.103,3.091,3.084,3.088,3.101,3.091,3.069,3.075,3.0,3.018,3.082,3.042,3.115,3.094,3.08,3.117,3.022,3.087,3.073,3.054,3.099,3.037,3.053,3.056
252,253,73.685,-55.599,-94.524,-4096.86,-8218.761,3.104,3.092,3.085,3.088,3.102,3.091,3.069,3.075,3.0,3.018,3.083,3.043,3.116,3.095,3.081,3.117,3.022,3.087,3.072,3.054,3.1,3.036,3.053,3.056
266,267,73.69,-55.608,-94.319,-4097.734,-8199.248,3.103,3.092,3.085,3.087,3.101,3.091,3.069,3.075,3.0,3.018,3.082,3.043,3.116,3.095,3.081,3.117,3.021,3.087,3.072,3.054,3.099,3.036,3.054,3.056
280,281,73.651,-55.61,-94.157,-4095.682,-8183.898,3.104,3.092,3.085,3.087,3.101,3.09,3.069,3.074,3.0,3.018,3.082,3.044,3.116,3.095,3.08,3.117,3.021,3.086,3.071,3.053,3.099,3.036,3.054,3.056
294,295,73.684,-55.587,-93.995,-4095.88,-8168.81,3.105,3.093,3.086,3.087,3.102,3.091,3.069,3.075,3.0,3.019,3.082,3.045,3.116,3.095,3.081,3.117,3.021,3.086,3.071,3.054,3.099,3.036,3.055,3.057
308,309,73.636,-55.606,-94.129,-4094.621,-8181.687,3.103,3.09,3.084,3.084,3.099,3.089,3.067,3.072,3.0,3.018,3.079,3.043,3.114,3.092,3.078,3.115,3.02,3.084,3.069,3.052,3.096,3.034,3.054,3.055
322,323,73.679,-55.588,-93.94,-4095.702,-8164.653,3.104,3.092,3.086,3.086,3.101,3.09,3.067,3.073,3.0,3.018,3.08,3.045,3.115,3.093,3.079,3.116,3.02,3.084,3.07,3.053,3.098,3.035,3.055,3.057
336,337,73.694,-55.601,-93.723,-4097.457,-8143.653,3.106,3.093,3.085,3.085,3.101,3.09,3.067,3.074,3.0,3.019,3.081,3.046,3.115,3.094,3.079,3.116,3.02,3.084,3.07,3.054,3.098,3.035,3.055,3.058
350,351,73.673,-55.615,-93.515,-4097.301,-8123.726,3.106,3.093,3.086,3.085,3.101,3.09,3.067,3.074,3.0,3.019,3.081,3.047,3.116,3.094,3.08,3.117,3.02,3.084,3.069,3.054,3.098,3.035,3.056,3.059
364,365,73.662,-55.583,-93.339,-4094.368,-8106.782,3.106,3.094,3.086,3.085,3.102,3.089,3.067,3.074,3.0,3.019,3.081,3.047,3.116,3.094,3.08,3.117,3.02,3.084,3.069,3.054,3.098,3.035,3.057,3.059
378,379,73.705,-55.611,-93.489,-4098.813,-8124.739,3.109,3.095,3.088,3.087,3.103,3.09,3.067,3.074,3.0,3.019,3.082,3.048,3.118,3.095,3.082,3.119,3.02,3.084,3.069,3.054,3.1,3.036,3.058,3.061
392,393,73.696,-55.599,-93.299,-4097.467,-8106.4,3.109,3.096,3.089,3.086,3.104,3.09,3.067,3.074,3.0,3.02,3.082,3.049,3.118,3.096,3.082,3.119,3.021,3.084,3.069,3.055,3.1,3.036,3.059,3.061
406,407,73.838,-55.615,-93.355,-4106.513,-8111.045,3.11,3.099,3.092,3.089,3.104,3.094,3.072,3.078,3.0,3.027,3.083,3.053,3.118,3.098,3.086,3.122,3.028,3.087,3.073,3.062,3.103,3.043,3.065,3.067
420,421,73.86,-55.583,-93.053,-4105.354,-8083.55,3.113,3.101,3.094,3.091,3.107,3.095,3.073,3.08,3.0,3.028,3.085,3.055,3.12,3.1,3.088,3.123,3.029,3.089,3.074,3.063,3.105,3.043,3.066,3.068
434,435,73.819,-55.617,-92.812,-4105.566,-8060.341,3.113,3.101,3.095,3.091,3.108,3.095,3.073,3.08,3.0,3.028,3.085,3.055,3.121,3.1,3.088,3.124,3.029,3.089,3.074,3.063,3.105,3.044,3.067,3.068
448,449,73.846,-55.61,-92.626,-4106.546,-8042.395,3.113,3.101,3.095,3.091,3.108,3.096,3.073,3.08,3.0,3.029,3.085,3.055,3.121,3.101,3.088,3.124,3.029,3.088,3.075,3.063,3.106,3.044,3.067,3.069
462,463,73.809,-55.612,-92.613,-4104.683,-8042.767,3.117,3.103,3.095,3.091,3.108,3.097,3.075,3.081,3.0,3.029,3.087,3.06,3.123,3.1,3.087,3.123,3.028,3.088,3.075,3.063,3.105,3.043,3.068,3.072
476,477,73.84,-55.586,-92.661,-4104.452,-8046.848,3.118,3.103,3.095,3.089,3.108,3.096,3.075,3.081,3.0,3.029,3.088,3.063,3.126,3.101,3.087,3.123,3.028,3.088,3.074,3.063,3.104,3.043,3.068,3.074
490,491,73.86,-55.601,-92.154,-4106.697,-7996.646,3.116,3.102,3.095,3.089,3.108,3.095,3.074,3.081,3.0,3.03,3.087,3.061,3.124,3.1,3.086,3.123,3.028,3.087,3.073,3.063,3.104,3.043,3.069,3.072
504,505,73.821,-55.596,-92.444,-4104.146,-8026.914,3.114,3.101,3.094,3.088,3.106,3.093,3.071,3.078,3.0,3.027,3.083,3.057,3.122,3.1,3.087,3.123,3.028,3.086,3.072,3.063,3.103,3.043,3.067,3.07
518,519,73.843,-55.613,-92.302,-4106.623,-8013.582,3.114,3.102,3.095,3.089,3.107,3.094,3.071,3.078,3.0,3.028,3.083,3.056,3.122,3.101,3.088,3.123,3.029,3.086,3.073,3.063,3.105,3.043,3.069,3.071
532,533,73.876,-55.6,-92.256,-4107.458,-8010.253,3.113,3.103,3.096,3.09,3.108,3.094,3.071,3.079,3.0,3.028,3.083,3.055,3.122,3.101,3.089,3.125,3.029,3.086,3.073,3.064,3.105,3.045,3.069,3.071
546,547,73.833,-55.605,-91.878,-4105.507,-7972.316,3.113,3.102,3.096,3.089,3.108,3.093,3.07,3.079,3.0,3.029,3.083,3.054,3.121,3.101,3.088,3.124,3.029,3.086,3.072,3.064,3.106,3.044,3.07,3.07
560,561,73.854,-55.615,-91.631,-4107.414,-7948.653,3.113,3.103,3.097,3.089,3.108,3.093,3.069,3.079,3.0,3.029,3.083,3.054,3.121,3.1,3.088,3.124,3.029,3.085,3.072,3.064,3.105,3.044,3.069,3.07
574,575,73.833,-55.607,-91.435,-4105.669,-7929.678,3.113,3.103,3.097,3.089,3.108,3.093,3.069,3.079,3.0,3.029,3.083,3.054,3.12,3.101,3.088,3.124,3.029,3.084,3.072,3.065,3.105,3.043,3.07,3.07
588,589,73.906,-55.59,-91.509,-4108.381,-7939.683,3.116,3.104,3.097,3.089,3.109,3.094,3.071,3.08,3.0,3.029,3.084,3.057,3.122,3.102,3.09,3.125,3.029,3.085,3.073,3.065,3.106,3.044,3.071,3.072
602,603,73.824,-55.591,-91.568,-4103.99,-7940.399,3.112,3.102,3.097,3.088,3.105,3.094,3.071,3.079,3.0,3.032,3.08,3.055,3.118,3.1,3.088,3.124,3.032,3.086,3.072,3.067,3.105,3.046,3.073,3.071
616,617,73.886,-55.61,-91.269,-4108.834,-7915.084,3.114,3.105,3.099,3.09,3.108,3.094,3.071,3.08,3.0,3.033,3.082,3.056,3.12,3.102,3.091,3.126,3.033,3.086,3.073,3.068,3.107,3.047,3.073,3.073
630,631,73.846,-55.621,-91.31,-4107.368,-7917.281,3.113,3.103,3.097,3.087,3.105,3.092,3.071,3.079,3.0,3.032,3.081,3.057,3.119,3.099,3.087,3.122,3.031,3.084,3.071,3.066,3.104,3.046,3.073,3.072
644,645,73.845,-55.592,-91.008,-4105.205,-7889.782,3.115,3.105,3.098,3.089,3.108,3.094,3.071,3.08,3.0,3.032,3.082,3.058,3.12,3.101,3.089,3.124,3.032,3.084,3.072,3.067,3.106,3.047,3.073,3.073
658,659,73.857,-55.603,-90.768,-4106.617,-7867.014,3.115,3.106,3.1,3.09,3.109,3.094,3.071,3.081,3.0,3.033,3.083,3.056,3.12,3.102,3.091,3.126,3.032,3.084,3.072,3.068,3.107,3.047,3.074,3.073
672,673,73.869,-55.604,-90.585,-4107.402,-7849.675,3.115,3.106,3.1,3.09,3.11,3.094,3.07,3.081,3.0,3.033,3.083,3.057,3.121,3.103,3.091,3.126,3.032,3.084,3.072,3.068,3.107,3.047,3.074,3.073
686,687,73.87,-55.579,-90.335,-4105.618,-7825.6,3.115,3.106,3.101,3.09,3.11,3.094,3.07,3.081,3.0,3.033,3.083,3.057,3.12,3.103,3.091,3.126,3.032,3.084,3.072,3.068,3.107,3.047,3.075,3.073
699,700,73.87,-55.604,-90.876,-4107.455,-7877.07,3.115,3.105,3.099,3.088,3.106,3.094,3.071,3.08,3.0,3.034,3.082,3.06,3.12,3.101,3.09,3.124,3.033,3.084,3.071,3.068,3.106,3.048,3.075,3.075